Time [s]	Voltage power source [V]	Voltage current sensor [V]
-1.00	-0.0005	2.5037
 -1.00	-0.0006	2.5038
 -1.00	-0.0003	2.5035
 -1.00	-0.0005	2.5034
 -1.00	-0.0007	2.5034
 -1.00	-0.0002	2.5032
 -1.00	-0.0004	2.5037
 -1.00	-0.0003	2.5037
 -1.00	-0.0009	2.5034
 -1.00	-0.0004	2.5038
 -1.00	-0.0002	2.5036
 -1.00	-0.0005	2.5038
 18.18	0.0007	2.5037
 18.30	-0.0000	2.5035
 18.41	0.0008	2.5031
 18.53	0.0007	2.5034
 18.65	-0.0003	2.5030
 18.77	0.0002	2.5031
 18.89	-0.0001	2.5032
 19.01	0.0000	2.5035
 19.13	-0.0002	2.5039
 19.25	0.0003	2.5039
 19.37	0.0008	2.5039
 19.48	0.0002	2.5040
 19.60	-0.0004	2.5039
 19.72	-0.0001	2.5048
 19.84	-0.0011	2.5043
 19.96	-0.0005	2.5027
 20.08	-0.0003	2.5032
 20.20	0.0007	2.5026
 20.32	0.0002	2.5028
 20.44	0.0012	2.5031
 20.55	-0.0007	2.5047
 20.67	0.0001	2.5031
 20.79	0.0524	2.4950
 20.91	0.0701	2.4920
 21.03	0.0760	2.4911
 21.15	0.0758	2.4910
 21.27	0.0911	2.4884
 21.39	0.0969	2.4867
 21.51	0.0986	2.4866
 21.63	0.1068	2.4850
 21.75	0.1154	2.4841
 21.86	0.1152	2.4841
 21.98	0.1154	2.4841
 22.10	0.1158	2.4846
 22.22	0.1272	2.4816
 22.34	0.1330	2.4809
 22.46	0.1373	2.4794
 22.57	0.1418	2.4795
 22.69	0.1541	2.4774
 22.81	0.1558	2.4776
 22.93	0.1552	2.4767
 23.05	0.1560	2.4776
 23.17	0.1553	2.4774
 23.29	0.1326	2.4810
 23.41	0.1305	2.4814
 23.53	0.1305	2.4816
 23.65	0.1295	2.4808
 23.77	0.1303	2.4815
 23.89	0.1293	2.4813
 24.00	0.1300	2.4813
 24.12	0.1293	2.4817
 24.24	0.1319	2.4814
 24.36	0.1317	2.4812
 24.48	0.1309	2.4811
 24.60	0.1323	2.4819
 24.71	0.1313	2.4813
 24.83	0.1342	2.4813
 24.95	0.1377	2.4808
 25.07	0.1430	2.4791
 25.19	0.1462	2.4795
 25.31	0.1505	2.4782
 25.43	0.1489	2.4790
 25.55	0.1481	2.4783
 25.67	0.1485	2.4790
 25.78	0.1490	2.4796
 25.90	0.1490	2.4785
 26.02	0.1484	2.4784
 26.14	0.1486	2.4794
 26.26	0.1488	2.4782
 26.38	0.1486	2.4784
 26.49	0.1490	2.4785
 26.61	0.1496	2.4796
 26.73	0.1485	2.4796
 26.85	0.1498	2.4787
 26.96	0.1487	2.4788
 27.08	0.1493	2.4782
 27.20	0.1485	2.4781
 27.32	0.1490	2.4783
 27.44	0.1489	2.4782
 27.56	0.1491	2.4786
 27.68	0.1491	2.4792
 27.79	0.1491	2.4786
 27.91	0.1488	2.4780
 28.03	0.1488	2.4775
 28.14	0.1484	2.4783
 28.26	0.1491	2.4787
 28.38	0.1485	2.4789
 28.49	0.1489	2.4793
 28.61	0.1480	2.4790
 28.73	0.1485	2.4788
 28.85	0.1483	2.4781
 28.97	0.1488	2.4783
 29.09	0.1487	2.4785
 29.20	0.1483	2.4788
 29.32	0.1478	2.4793
 29.44	0.1486	2.4788
 29.56	0.1483	2.4789
 29.68	0.1485	2.4789
 29.80	0.1484	2.4783
 29.92	0.1490	2.4790
 30.04	0.1484	2.4777
 30.15	0.1487	2.4780
 30.26	0.1485	2.4798
 30.39	0.1479	2.4788
 30.50	0.1478	2.4780
 30.62	0.1476	2.4779
 30.74	0.1482	2.4786
 30.86	0.1485	2.4783
 30.98	0.1478	2.4785
 31.10	0.1478	2.4797
 31.21	0.1489	2.4790
 31.33	0.1480	2.4792
 31.45	0.1484	2.4790
 31.57	0.1488	2.4785
 31.69	0.1489	2.4794
 31.81	0.1481	2.4788
 31.92	0.1492	2.4782
 32.04	0.1486	2.4790
 32.16	0.1483	2.4789
 32.28	0.1485	2.4789
 32.40	0.1487	2.4790
 32.52	0.1479	2.4793
 32.64	0.1485	2.4779
 32.75	0.1484	2.4788
 32.87	0.1490	2.4789
 32.99	0.1491	2.4785
 33.11	0.1478	2.4784
 33.23	0.1478	2.4787
 33.35	0.1491	2.4785
 33.47	0.1485	2.4785
 33.59	0.1494	2.4789
 33.70	0.1506	2.4786
 33.82	0.1503	2.4794
 33.94	0.1502	2.4790
 34.06	0.1521	2.4785
 34.18	0.1581	2.4774
 34.29	0.1588	2.4771
 34.41	0.1574	2.4769
 34.53	0.1611	2.4758
 34.65	0.1636	2.4762
 34.76	0.1640	2.4767
 34.88	0.1667	2.4761
 35.00	0.1660	2.4754
 35.12	0.1685	2.4759
 35.23	0.1689	2.4751
 35.35	0.1700	2.4752
 35.47	0.1786	2.4735
 35.58	0.1800	2.4737
 35.70	0.1808	2.4734
 35.82	0.1836	2.4715
 35.93	0.1902	2.4719
 36.05	0.1905	2.4718
 36.17	0.1903	2.4720
 36.29	0.1911	2.4719
 36.41	0.1896	2.4721
 36.52	0.1902	2.4719
 36.64	0.1918	2.4727
 36.76	0.1962	2.4724
 36.88	0.2048	2.4689
 37.00	0.2113	2.4695
 37.12	0.2148	2.4680
 37.24	0.2191	2.4676
 37.36	0.2275	2.4664
 37.48	0.2311	2.4656
 37.59	0.2309	2.4665
 37.71	0.2309	2.4652
 37.83	0.2311	2.4654
 37.95	0.2315	2.4655
 38.07	0.2304	2.4654
 38.19	0.2307	2.4654
 38.31	0.2316	2.4660
 38.43	0.2340	2.4658
 38.56	0.2347	2.4653
 38.68	0.2388	2.4641
 38.80	0.2415	2.4634
 38.92	0.2433	2.4631
 39.04	0.2482	2.4626
 39.16	0.2488	2.4626
 39.28	0.2490	2.4614
 39.40	0.2530	2.4623
 39.52	0.2563	2.4617
 39.63	0.2566	2.4614
 39.75	0.2568	2.4610
 39.87	0.2622	2.4603
 39.99	0.2651	2.4595
 40.11	0.2651	2.4594
 40.23	0.2656	2.4600
 40.34	0.2650	2.4593
 40.46	0.2653	2.4602
 40.58	0.2653	2.4606
 40.70	0.2652	2.4600
 40.82	0.2657	2.4607
 40.94	0.2658	2.4598
 41.06	0.2663	2.4597
 41.18	0.2652	2.4598
 41.30	0.2656	2.4594
 41.41	0.2651	2.4591
 41.53	0.2653	2.4606
 41.65	0.2653	2.4593
 41.77	0.2648	2.4598
 41.88	0.2654	2.4594
 42.00	0.2655	2.4594
 42.12	0.2650	2.4603
 42.24	0.2654	2.4592
 42.36	0.2647	2.4598
 42.48	0.2646	2.4595
 42.59	0.2650	2.4593
 42.71	0.2650	2.4602
 42.82	0.2645	2.4596
 42.94	0.2651	2.4596
 43.06	0.2644	2.4599
 43.18	0.2647	2.4602
 43.30	0.2652	2.4597
 43.42	0.2642	2.4594
 43.53	0.2650	2.4601
 43.65	0.2648	2.4603
 43.77	0.2652	2.4593
 43.89	0.2645	2.4593
 44.01	0.2653	2.4599
 44.13	0.2652	2.4592
 44.25	0.2650	2.4595
 44.37	0.2638	2.4598
 44.48	0.2648	2.4604
 44.60	0.2647	2.4593
 44.72	0.2689	2.4592
 44.84	0.2820	2.4559
 44.96	0.2912	2.4554
 45.08	0.2972	2.4559
 45.19	0.3124	2.4518
 45.31	0.3131	2.4521
 45.43	0.3129	2.4519
 45.55	0.3125	2.4502
 45.67	0.3131	2.4519
 45.78	0.3129	2.4509
 45.90	0.3137	2.4524
 46.02	0.3132	2.4518
 46.14	0.3132	2.4511
 46.25	0.3138	2.4511
 46.37	0.3141	2.4510
 46.49	0.3156	2.4511
 46.61	0.3276	2.4493
 46.73	0.3337	2.4478
 46.85	0.3369	2.4473
 46.97	0.3394	2.4474
 47.09	0.3430	2.4461
 47.20	0.3519	2.4444
 47.32	0.3535	2.4446
 47.44	0.3531	2.4454
 47.56	0.3586	2.4448
 47.68	0.3586	2.4439
 47.80	0.3592	2.4434
 47.92	0.3638	2.4435
 48.04	0.3688	2.4421
 48.16	0.3699	2.4418
 48.28	0.3749	2.4408
 48.40	0.3769	2.4409
 48.52	0.3772	2.4404
 48.64	0.3823	2.4405
 48.75	0.3858	2.4390
 48.87	0.3878	2.4394
 48.99	0.3875	2.4387
 49.11	0.3884	2.4392
 49.23	0.3905	2.4381
 49.35	0.3902	2.4373
 49.47	0.3901	2.4393
 49.58	0.3903	2.4386
 49.70	0.3910	2.4375
 49.82	0.3906	2.4383
 49.94	0.3892	2.4380
 50.06	0.3903	2.4377
 50.18	0.3901	2.4389
 50.30	0.3903	2.4396
 50.42	0.3905	2.4384
 50.53	0.3908	2.4388
 50.65	0.3901	2.4375
 50.77	0.3900	2.4383
 50.89	0.3900	2.4393
 51.01	0.3905	2.4380
 51.12	0.3911	2.4386
 51.24	0.3904	2.4390
 51.36	0.3908	2.4377
 51.48	0.3897	2.4383
 51.60	0.3907	2.4386
 51.72	0.3908	2.4386
 51.84	0.3903	2.4373
 51.96	0.3904	2.4380
 52.08	0.3909	2.4387
 52.19	0.3900	2.4386
 52.31	0.3909	2.4378
 52.43	0.3899	2.4382
 52.55	0.3900	2.4378
 52.66	0.3898	2.4390
 52.78	0.3902	2.4378
 52.90	0.3903	2.4382
 53.02	0.3913	2.4370
 53.14	0.3904	2.4377
 53.26	0.3903	2.4382
 53.37	0.3904	2.4388
 53.49	0.3908	2.4388
 53.61	0.3907	2.4387
 53.73	0.3905	2.4383
 53.85	0.3903	2.4379
 53.96	0.3900	2.4381
 54.08	0.3901	2.4388
 54.20	0.3909	2.4387
 54.32	0.3895	2.4399
 54.43	0.3903	2.4377
 54.55	0.3894	2.4391
 54.67	0.3898	2.4377
 54.79	0.3913	2.4389
 54.91	0.3899	2.4375
 55.02	0.3902	2.4389
 55.14	0.3906	2.4377
 55.26	0.3903	2.4383
 55.38	0.3914	2.4382
 55.50	0.3902	2.4382
 55.62	0.3902	2.4382
 55.73	0.3897	2.4387
 55.85	0.3931	2.4384
 55.97	0.4046	2.4379
 56.09	0.4043	2.4381
 56.21	0.3984	2.4381
 56.33	0.3985	2.4385
 56.45	0.3980	2.4381
 56.57	0.3969	2.4380
 56.68	0.4084	2.4367
 56.80	0.4176	2.4356
 56.92	0.4242	2.4342
 57.04	0.4283	2.4337
 57.16	0.4315	2.4325
 57.28	0.4419	2.4317
 57.40	0.4472	2.4297
 57.52	0.4513	2.4304
 57.63	0.4580	2.4290
 57.75	0.4660	2.4274
 57.87	0.4765	2.4254
 57.99	0.4843	2.4254
 58.11	0.4898	2.4232
 58.22	0.4968	2.4228
 58.34	0.5011	2.4217
 58.46	0.5028	2.4217
 58.58	0.5046	2.4212
 58.70	0.5053	2.4217
 58.82	0.5077	2.4214
 58.94	0.5097	2.4202
 59.06	0.5140	2.4196
 59.17	0.5170	2.4191
 59.29	0.5259	2.4178
 59.41	0.5266	2.4174
 59.53	0.5258	2.4172
 59.65	0.5262	2.4172
 59.77	0.5264	2.4171
 59.88	0.5275	2.4183
 60.00	0.5279	2.4178
 60.12	0.5278	2.4173
 60.24	0.5276	2.4170
 60.36	0.5279	2.4178
 60.48	0.5271	2.4182
 60.60	0.5280	2.4178
 60.71	0.5275	2.4169
 60.83	0.5276	2.4177
 60.95	0.5281	2.4173
 61.07	0.5275	2.4168
 61.19	0.5267	2.4182
 61.31	0.5279	2.4169
 61.42	0.5284	2.4168
 61.53	0.5273	2.4179
 61.65	0.5274	2.4165
 61.77	0.5279	2.4169
 61.89	0.5273	2.4175
 62.01	0.5275	2.4177
 62.12	0.5275	2.4174
 62.24	0.5270	2.4184
 62.36	0.5273	2.4172
 62.47	0.5268	2.4174
 62.59	0.5283	2.4169
 62.71	0.5274	2.4177
 62.83	0.5266	2.4182
 62.94	0.5262	2.4173
 63.06	0.5263	2.4165
 63.18	0.5265	2.4174
 63.30	0.5252	2.4176
 63.42	0.5270	2.4174
 63.53	0.5260	2.4170
 63.65	0.5258	2.4175
 63.77	0.5253	2.4173
 63.89	0.5252	2.4167
 64.00	0.5260	2.4172
 64.12	0.5302	2.4163
 64.24	0.5308	2.4157
 64.36	0.5315	2.4168
 64.48	0.5314	2.4163
 64.59	0.5309	2.4163
 64.71	0.5315	2.4162
 64.83	0.5306	2.4163
 64.95	0.5304	2.4163
 65.07	0.5310	2.4172
 65.19	0.5315	2.4165
 65.30	0.5308	2.4166
 65.42	0.5305	2.4162
 65.54	0.5304	2.4166
 65.66	0.5302	2.4161
 65.77	0.5307	2.4157
 65.89	0.5309	2.4166
 66.01	0.5312	2.4156
 66.13	0.5308	2.4165
 66.25	0.5325	2.4153
 66.37	0.5327	2.4154
 66.49	0.5339	2.4156
 66.60	0.5414	2.4142
 66.72	0.5849	2.4063
 66.84	0.5994	2.4045
 66.96	0.5999	2.4058
 67.08	0.6042	2.4050
 67.19	0.6118	2.4025
 67.31	0.6160	2.4021
 67.43	0.6212	2.4009
 67.54	0.6199	2.4007
 67.66	0.6215	2.4017
 67.78	0.6233	2.4014
 67.90	0.6236	2.4008
 68.02	0.6246	2.4010
 68.14	0.6334	2.3984
 68.26	0.6350	2.3988
 68.38	0.6357	2.3987
 68.49	0.6354	2.3992
 68.61	0.6357	2.3983
 68.73	0.6356	2.3992
 68.84	0.6348	2.3990
 68.96	0.6376	2.3992
 69.08	0.6377	2.3989
 69.20	0.6382	2.3997
 69.32	0.6384	2.3979
 69.43	0.6407	2.3981
 69.54	0.6415	2.3985
 69.66	0.6428	2.3984
 69.78	0.6433	2.3978
 69.90	0.6447	2.3971
 70.02	0.6441	2.3975
 70.14	0.6501	2.3968
 70.26	0.6522	2.3971
 70.38	0.6527	2.3961
 70.50	0.6540	2.3967
 70.61	0.6530	2.3954
 70.73	0.6528	2.3957
 70.85	0.6536	2.3958
 70.97	0.6539	2.3959
 71.08	0.6535	2.3956
 71.20	0.6536	2.3956
 71.32	0.6544	2.3957
 71.44	0.6541	2.3956
 71.56	0.6545	2.3956
 71.67	0.6542	2.3960
 71.79	0.6540	2.3965
 71.91	0.6537	2.3966
 72.03	0.6543	2.3956
 72.15	0.6538	2.3969
 72.26	0.6537	2.3954
 72.38	0.6540	2.3967
 72.50	0.6533	2.3962
 72.62	0.6547	2.3961
 72.73	0.6536	2.3963
 72.85	0.6536	2.3959
 72.96	0.6533	2.3963
 73.08	0.6534	2.3963
 73.20	0.6528	2.3962
 73.32	0.6533	2.3956
 73.44	0.6539	2.3959
 73.56	0.6538	2.3959
 73.67	0.6536	2.3962
 73.79	0.6533	2.3958
 73.91	0.6524	2.3954
 74.03	0.6537	2.3963
 74.14	0.6538	2.3962
 74.26	0.6537	2.3964
 74.37	0.6545	2.3960
 74.50	0.6538	2.3964
 74.61	0.6527	2.3948
 74.73	0.6537	2.3951
 74.85	0.6541	2.3954
 74.97	0.6528	2.3960
 75.09	0.6527	2.3961
 75.20	0.6536	2.3960
 75.32	0.6529	2.3960
 75.44	0.6528	2.3964
 75.55	0.6529	2.3958
 75.67	0.6524	2.3958
 75.79	0.6528	2.3962
 75.90	0.6535	2.3966
 76.02	0.6527	2.3968
 76.14	0.6532	2.3962
 76.26	0.6536	2.3967
 76.38	0.6538	2.3962
 76.49	0.6527	2.3962
 76.61	0.6531	2.3953
 76.73	0.6529	2.3958
 76.85	0.6550	2.3954
 76.96	0.6573	2.3956
 77.08	0.6614	2.3944
 77.20	0.6638	2.3941
 77.31	0.6694	2.3932
 77.43	0.6759	2.3926
 77.55	0.6790	2.3918
 77.67	0.6839	2.3909
 77.79	0.6910	2.3902
 77.91	0.6924	2.3895
 78.03	0.6949	2.3892
 78.15	0.6989	2.3885
 78.26	0.7004	2.3882
 78.38	0.7073	2.3875
 78.50	0.7110	2.3866
 78.61	0.7139	2.3862
 78.73	0.7166	2.3854
 78.84	0.7215	2.3848
 78.96	0.7242	2.3849
 79.08	0.7237	2.3840
 79.20	0.7272	2.3839
 79.32	0.7290	2.3831
 79.44	0.7308	2.3833
 79.55	0.7372	2.3820
 79.67	0.7391	2.3820
 79.78	0.7396	2.3822
 79.89	0.7421	2.3812
 80.01	0.7461	2.3805
 80.13	0.7569	2.3789
 80.25	0.7594	2.3787
 80.37	0.7622	2.3774
 80.48	0.7650	2.3769
 80.60	0.7667	2.3765
 80.72	0.7700	2.3769
 80.84	0.7742	2.3755
 80.95	0.7797	2.3746
 81.06	0.7808	2.3743
 81.18	0.7808	2.3731
 81.30	0.7821	2.3748
 81.42	0.7816	2.3746
 81.54	0.7814	2.3738
 81.65	0.7813	2.3754
 81.77	0.7800	2.3750
 81.89	0.7757	2.3760
 82.01	0.7756	2.3756
 82.13	0.7760	2.3753
 82.24	0.7761	2.3753
 82.36	0.7756	2.3755
 82.47	0.7795	2.3757
 82.59	0.7784	2.3750
 82.71	0.7768	2.3758
 82.83	0.7759	2.3757
 82.94	0.7769	2.3750
 83.06	0.7764	2.3754
 83.18	0.7768	2.3757
 83.30	0.7768	2.3751
 83.41	0.7766	2.3748
 83.53	0.7768	2.3750
 83.64	0.7771	2.3754
 83.76	0.7760	2.3752
 83.88	0.7770	2.3754
 83.99	0.7758	2.3753
 84.11	0.7761	2.3751
 84.23	0.7778	2.3755
 84.34	0.7777	2.3750
 84.46	0.7767	2.3754
 84.58	0.7767	2.3751
 84.69	0.7765	2.3753
 84.81	0.7768	2.3757
 84.93	0.7770	2.3750
 85.05	0.7767	2.3762
 85.17	0.7765	2.3755
 85.28	0.7768	2.3757
 85.40	0.7766	2.3753
 85.52	0.7763	2.3756
 85.64	0.7766	2.3757
 85.75	0.7760	2.3750
 85.87	0.7757	2.3757
 85.98	0.7762	2.3756
 86.10	0.7765	2.3748
 86.22	0.7777	2.3747
 86.33	0.7791	2.3745
 86.45	0.7791	2.3746
 86.57	0.7817	2.3748
 86.69	0.7924	2.3731
 86.81	0.8191	2.3688
 86.93	0.8374	2.3652
 87.04	0.8433	2.3649
 87.16	0.8444	2.3645
 87.28	0.8492	2.3635
 87.39	0.8554	2.3632
 87.51	0.8599	2.3627
 87.63	0.8681	2.3604
 87.74	0.8785	2.3582
 87.86	0.8836	2.3577
 87.98	0.8840	2.3581
 88.10	0.8842	2.3571
 88.21	0.8939	2.3557
 88.33	0.9016	2.3548
 88.45	0.9056	2.3535
 88.56	0.9098	2.3533
 88.68	0.9125	2.3528
 88.80	0.9115	2.3522
 88.92	0.9127	2.3528
 89.03	0.9122	2.3528
 89.15	0.9126	2.3520
 89.27	0.9109	2.3528
 89.39	0.9100	2.3530
 89.50	0.9105	2.3525
 89.62	0.9109	2.3528
 89.73	0.9111	2.3531
 89.84	0.9108	2.3522
 89.97	0.9102	2.3527
 90.09	0.9107	2.3530
 90.20	0.9094	2.3529
 90.32	0.9093	2.3529
 90.43	0.9102	2.3534
 90.55	0.9096	2.3533
 90.67	0.9097	2.3528
 90.78	0.9101	2.3534
 90.90	0.9098	2.3529
 91.01	0.9094	2.3533
 91.13	0.9093	2.3534
 91.25	0.9097	2.3528
 91.36	0.9098	2.3540
 91.48	0.9091	2.3528
 91.59	0.9092	2.3541
 91.71	0.9082	2.3531
 91.83	0.9079	2.3534
 91.95	0.9083	2.3527
 92.06	0.9079	2.3523
 92.18	0.9063	2.3539
 92.30	0.9036	2.3539
 92.42	0.9033	2.3544
 92.53	0.9033	2.3537
 92.65	0.9034	2.3541
 92.76	0.9027	2.3544
 92.88	0.9029	2.3542
 93.00	0.9025	2.3546
 93.11	0.9019	2.3543
 93.23	0.9020	2.3538
 93.35	0.9030	2.3540
 93.47	0.9022	2.3544
 93.58	0.9022	2.3530
 93.70	0.9019	2.3544
 93.82	0.9023	2.3542
 93.93	0.9028	2.3540
 94.05	0.9020	2.3550
 94.17	0.9022	2.3544
 94.28	0.9022	2.3531
 94.40	0.9019	2.3544
 94.51	0.9020	2.3547
 94.63	0.9023	2.3537
 94.75	0.9022	2.3536
 94.86	0.9014	2.3540
 94.98	0.9019	2.3541
 95.09	0.9021	2.3540
 95.21	0.9021	2.3540
 95.32	0.9023	2.3548
 95.44	0.9019	2.3536
 95.55	0.9025	2.3540
 95.67	0.9024	2.3542
 95.79	0.9019	2.3545
 95.90	0.9031	2.3540
 96.02	0.9032	2.3532
 96.14	0.9032	2.3546
 96.25	0.9028	2.3536
 96.36	0.9034	2.3544
 96.48	0.9040	2.3536
 96.60	0.9050	2.3542
 96.72	0.9033	2.3537
 96.83	0.9033	2.3536
 96.95	0.9033	2.3552
 97.07	0.9026	2.3538
 97.18	0.9018	2.3534
 97.29	0.9013	2.3537
 97.41	0.9015	2.3540
 97.53	0.9009	2.3529
 97.65	0.9013	2.3541
 97.76	0.9045	2.3541
 97.88	0.9245	2.3506
 98.00	0.9443	2.3472
 98.11	0.9467	2.3465
 98.22	0.9631	2.3443
 98.34	0.9900	2.3397
 98.45	0.9990	2.3377
 98.57	1.0060	2.3356
 98.69	1.0098	2.3367
 98.81	1.0086	2.3365
 98.92	1.0088	2.3357
 99.04	1.0094	2.3361
 99.15	1.0158	2.3355
 99.27	1.0169	2.3338
 99.38	1.0167	2.3342
 99.50	1.0185	2.3345
 99.62	1.0178	2.3341
 99.73	1.0183	2.3337
 99.85	1.0184	2.3338
 99.96	1.0167	2.3336
 100.08	1.0171	2.3338
 100.20	1.0171	2.3347
 100.31	1.0159	2.3343
 100.42	1.0145	2.3344
 100.54	1.0156	2.3335
 100.66	1.0143	2.3348
 100.77	1.0152	2.3330
 100.88	1.0142	2.3344
 101.00	1.0155	2.3346
 101.12	1.0141	2.3333
 101.24	1.0146	2.3334
 101.35	1.0153	2.3339
 101.46	1.0150	2.3336
 101.58	1.0142	2.3351
 101.70	1.0145	2.3343
 101.82	1.0136	2.3345
 101.93	1.0125	2.3343
 102.04	1.0146	2.3344
 102.16	1.0134	2.3342
 102.28	1.0134	2.3334
 102.39	1.0141	2.3343
 102.51	1.0134	2.3343
 102.63	1.0131	2.3345
 102.74	1.0127	2.3341
 102.86	1.0129	2.3341
 102.98	1.0137	2.3345
 103.09	1.0154	2.3341
 103.21	1.0247	2.3325
 103.32	1.0627	2.3256
 103.43	1.0808	2.3232
 103.55	1.0880	2.3208
 103.67	1.0974	2.3197
 103.78	1.1048	2.3184
 103.89	1.1110	2.3171
 104.01	1.1164	2.3159
 104.12	1.1155	2.3170
 104.24	1.1183	2.3172
 104.35	1.1189	2.3168
 104.47	1.1182	2.3160
 104.58	1.1221	2.3157
 104.70	1.1245	2.3155
 104.81	1.1295	2.3139
 104.93	1.1325	2.3142
 105.04	1.1342	2.3132
 105.16	1.1375	2.3134
 105.27	1.1412	2.3124
 105.38	1.1415	2.3124
 105.50	1.1405	2.3124
 105.62	1.1404	2.3128
 105.73	1.1409	2.3120
 105.85	1.1418	2.3126
 105.96	1.1420	2.3124
 106.08	1.1415	2.3132
 106.20	1.1423	2.3130
 106.31	1.1418	2.3125
 106.43	1.1406	2.3120
 106.54	1.1409	2.3126
 106.66	1.1419	2.3126
 106.78	1.1419	2.3120
 106.89	1.1407	2.3126
 107.01	1.1410	2.3126
 107.12	1.1399	2.3125
 107.24	1.1400	2.3122
 107.35	1.1399	2.3115
 107.47	1.1407	2.3128
 107.58	1.1410	2.3128
 107.70	1.1409	2.3128
 107.81	1.1413	2.3116
 107.93	1.1411	2.3128
 108.04	1.1406	2.3122
 108.16	1.1414	2.3128
 108.27	1.1407	2.3124
 108.38	1.1406	2.3124
 108.50	1.1398	2.3121
 108.62	1.1403	2.3126
 108.73	1.1391	2.3122
 108.84	1.1386	2.3117
 108.96	1.1406	2.3111
 109.08	1.1689	2.3081
 109.19	1.1773	2.3065
 109.31	1.1835	2.3043
 109.42	1.1911	2.3032
 109.54	1.1999	2.3022
 109.65	1.2058	2.3020
 109.77	1.2055	2.3018
 109.89	1.2089	2.3005
 110.00	1.2113	2.3011
 110.12	1.2167	2.2990
 110.23	1.2192	2.2993
 110.35	1.2223	2.2989
 110.46	1.2227	2.2996
 110.58	1.2250	2.2980
 110.69	1.2334	2.2968
 110.81	1.2337	2.2975
 110.93	1.2328	2.2965
 111.04	1.2355	2.2959
 111.16	1.2359	2.2963
 111.27	1.2383	2.2961
 111.38	1.2424	2.2945
 111.50	1.2448	2.2948
 111.61	1.2450	2.2940
 111.73	1.2485	2.2940
 111.84	1.2531	2.2937
 111.96	1.2523	2.2939
 112.07	1.2529	2.2933
 112.19	1.2530	2.2927
 112.30	1.2528	2.2929
 112.41	1.2524	2.2934
 112.53	1.2531	2.2930
 112.65	1.2557	2.2929
 112.76	1.2565	2.2925
 112.88	1.2556	2.2936
 112.99	1.2556	2.2928
 113.11	1.2561	2.2926
 113.22	1.2613	2.2928
 113.34	1.2598	2.2926
 113.45	1.2582	2.2925
 113.57	1.2580	2.2926
 113.68	1.2580	2.2922
 113.80	1.2582	2.2928
 113.91	1.2581	2.2925
 114.03	1.2574	2.2929
 114.14	1.2572	2.2920
 114.26	1.2578	2.2924
 114.37	1.2582	2.2920
 114.49	1.2574	2.2926
 114.60	1.2574	2.2927
 114.72	1.2573	2.2924
 114.84	1.2570	2.2923
 114.95	1.2580	2.2926
 115.07	1.2570	2.2928
 115.18	1.2568	2.2931
 115.30	1.2565	2.2928
 115.42	1.2570	2.2925
 115.53	1.2571	2.2930
 115.65	1.2571	2.2926
 115.76	1.2574	2.2927
 115.88	1.2569	2.2929
 115.99	1.2682	2.2933
 116.11	1.2732	2.2933
 116.22	1.2859	2.2924
 116.34	1.2870	2.2914
 116.45	1.3021	2.2893
 116.57	1.3050	2.2882
 116.69	1.3102	2.2865
 116.80	1.3538	2.2794
 116.92	1.3843	2.2743
 117.03	1.3895	2.2732
 117.15	1.3982	2.2712
 117.26	1.3971	2.2710
 117.38	1.3954	2.2723
 117.49	1.3969	2.2712
 117.61	1.3944	2.2716
 117.73	1.3946	2.2711
 117.84	1.3937	2.2714
 117.96	1.3941	2.2713
 118.07	1.3958	2.2724
 118.19	1.3910	2.2721
 118.31	1.3884	2.2722
 118.43	1.3875	2.2715
 118.54	1.3876	2.2724
 118.66	1.3863	2.2710
 118.77	1.3866	2.2719
 118.89	1.3861	2.2719
 119.00	1.3858	2.2722
 119.12	1.3851	2.2720
 119.24	1.3847	2.2724
 119.35	1.3853	2.2714
 119.46	1.3859	2.2719
 119.58	1.3845	2.2719
 119.69	1.3852	2.2719
 119.81	1.3849	2.2718
 119.92	1.3848	2.2716
 120.03	1.3844	2.2720
 120.15	1.3841	2.2712
 120.27	1.3839	2.2719
 120.38	1.3849	2.2719
 120.50	1.3841	2.2709
 120.61	1.3838	2.2721
 120.73	1.3827	2.2710
 120.84	1.3851	2.2726
 120.96	1.3833	2.2714
 121.07	1.3824	2.2721
 121.19	1.4096	2.2680
 121.30	1.4412	2.2628
 121.42	1.4485	2.2614
 121.53	1.4554	2.2598
 121.64	1.4663	2.2591
 121.76	1.4692	2.2572
 121.88	1.4721	2.2574
 121.99	1.4836	2.2549
 122.10	1.4854	2.2552
 122.22	1.4849	2.2551
 122.33	1.4855	2.2561
 122.45	1.4847	2.2547
 122.56	1.4861	2.2550
 122.68	1.4873	2.2548
 122.79	1.4912	2.2540
 122.91	1.4914	2.2528
 123.02	1.4983	2.2527
 123.13	1.5017	2.2514
 123.25	1.5020	2.2523
 123.36	1.5011	2.2511
 123.48	1.5032	2.2521
 123.59	1.5070	2.2500
 123.71	1.5069	2.2511
 123.82	1.5108	2.2501
 123.94	1.5181	2.2498
 124.05	1.5151	2.2498
 124.16	1.5154	2.2501
 124.28	1.5126	2.2498
 124.40	1.5121	2.2498
 124.51	1.5124	2.2496
 124.62	1.5125	2.2495
 124.74	1.5118	2.2497
 124.85	1.5110	2.2495
 124.97	1.5110	2.2507
 125.08	1.5115	2.2499
 125.20	1.5108	2.2502
 125.31	1.5120	2.2502
 125.43	1.5121	2.2502
 125.54	1.5113	2.2495
 125.66	1.5112	2.2498
 125.77	1.5116	2.2495
 125.89	1.5115	2.2505
 126.00	1.5111	2.2504
 126.12	1.5111	2.2509
 126.23	1.5116	2.2497
 126.35	1.5115	2.2501
 126.46	1.5116	2.2511
 126.57	1.5109	2.2504
 126.69	1.5111	2.2504
 126.81	1.5120	2.2501
 126.92	1.5116	2.2504
 127.03	1.5116	2.2498
 127.15	1.5119	2.2498
 127.26	1.5113	2.2502
 127.38	1.5108	2.2501
 127.49	1.5107	2.2496
 127.61	1.5114	2.2492
 127.72	1.5120	2.2504
 127.84	1.5149	2.2504
 127.95	1.5344	2.2501
 128.07	1.5405	2.2483
 128.18	1.5546	2.2455
 128.30	1.5678	2.2431
 128.41	1.5768	2.2409
 128.53	1.5805	2.2404
 128.64	1.5901	2.2384
 128.76	1.5961	2.2373
 128.87	1.5959	2.2376
 128.99	1.5974	2.2377
 129.10	1.6003	2.2367
 129.21	1.6075	2.2358
 129.33	1.6104	2.2340
 129.44	1.6133	2.2344
 129.56	1.6116	2.2350
 129.67	1.6136	2.2338
 129.78	1.6145	2.2344
 129.90	1.6160	2.2338
 130.02	1.6179	2.2330
 130.13	1.6193	2.2330
 130.25	1.6184	2.2338
 130.36	1.6205	2.2326
 130.47	1.6202	2.2324
 130.59	1.6240	2.2322
 130.70	1.6264	2.2318
 130.82	1.6276	2.2309
 130.93	1.6308	2.2307
 131.04	1.6374	2.2297
 131.15	1.6370	2.2295
 131.27	1.6359	2.2287
 131.38	1.6348	2.2307
 131.50	1.6342	2.2313
 131.61	1.6343	2.2306
 131.73	1.6366	2.2300
 131.84	1.6364	2.2298
 131.96	1.6374	2.2306
 132.07	1.6374	2.2293
 132.18	1.6369	2.2299
 132.30	1.6371	2.2310
 132.41	1.6367	2.2296
 132.53	1.6364	2.2296
 132.64	1.6375	2.2294
 132.76	1.6378	2.2308
 132.87	1.6375	2.2306
 132.98	1.6366	2.2306
 133.10	1.6378	2.2296
 133.21	1.6372	2.2299
 133.33	1.6374	2.2307
 133.44	1.6362	2.2298
 133.55	1.6371	2.2305
 133.67	1.6367	2.2303
 133.78	1.6377	2.2299
 133.90	1.6366	2.2297
 134.01	1.6365	2.2299
 134.12	1.6366	2.2294
 134.24	1.6369	2.2301
 134.36	1.6370	2.2310
 134.47	1.6373	2.2300
 134.58	1.6366	2.2305
 134.70	1.6367	2.2303
 134.81	1.6399	2.2293
 134.93	1.6457	2.2291
 135.04	1.6969	2.2204
 135.16	1.7168	2.2172
 135.27	1.7277	2.2149
 135.39	1.7310	2.2146
 135.50	1.7384	2.2124
 135.62	1.7449	2.2112
 135.73	1.7482	2.2109
 135.85	1.7481	2.2107
 135.96	1.7534	2.2101
 136.07	1.7549	2.2095
 136.19	1.7570	2.2099
 136.31	1.7624	2.2085
 136.42	1.7618	2.2091
 136.53	1.7614	2.2086
 136.65	1.7620	2.2080
 136.77	1.7598	2.2086
 136.88	1.7622	2.2086
 137.00	1.7624	2.2077
 137.11	1.7618	2.2085
 137.23	1.7619	2.2086
 137.34	1.7619	2.2078
 137.45	1.7622	2.2082
 137.57	1.7611	2.2082
 137.68	1.7593	2.2096
 137.80	1.7612	2.2085
 137.91	1.7602	2.2088
 138.02	1.7602	2.2081
 138.14	1.7597	2.2092
 138.26	1.7602	2.2083
 138.37	1.7591	2.2088
 138.48	1.7584	2.2091
 138.59	1.7588	2.2088
 138.71	1.7586	2.2086
 138.82	1.7593	2.2079
 138.94	1.7587	2.2086
 139.05	1.7595	2.2081
 139.16	1.7598	2.2089
 139.28	1.7602	2.2084
 139.39	1.7607	2.2081
 139.51	1.7614	2.2081
 139.62	1.7604	2.2083
 139.74	1.7605	2.2082
 139.85	1.7605	2.2080
 139.97	1.7613	2.2089
 140.08	1.7607	2.2080
 140.19	1.7613	2.2076
 140.31	1.7607	2.2089
 140.42	1.7610	2.2078
 140.54	1.7611	2.2082
 140.65	1.7607	2.2089
 140.76	1.7608	2.2082
 140.88	1.7592	2.2080
 141.00	1.7643	2.2082
 141.11	1.7719	2.2064
 141.23	1.7783	2.2059
 141.34	1.7809	2.2045
 141.45	1.7861	2.2046
 141.57	1.7926	2.2025
 141.69	1.7927	2.2032
 141.80	1.7949	2.2022
 141.92	1.8076	2.2007
 142.03	1.8118	2.2003
 142.14	1.8151	2.1994
 142.26	1.8187	2.1986
 142.38	1.8217	2.1981
 142.49	1.8251	2.1991
 142.61	1.8251	2.1977
 142.72	1.8284	2.1972
 142.83	1.8324	2.1966
 142.94	1.8355	2.1961
 143.06	1.8386	2.1951
 143.17	1.8428	2.1944
 143.29	1.8449	2.1941
 143.40	1.8496	2.1930
 143.51	1.8518	2.1935
 143.63	1.8525	2.1931
 143.75	1.8603	2.1918
 143.86	1.8621	2.1912
 143.97	1.8666	2.1905
 144.08	1.8698	2.1908
 144.20	1.8725	2.1894
 144.31	1.8781	2.1879
 144.43	1.8822	2.1880
 144.54	1.8858	2.1875
 144.65	1.8881	2.1869
 144.77	1.8883	2.1869
 144.89	1.8891	2.1869
 145.00	1.8882	2.1866
 145.11	1.8891	2.1872
 145.23	1.8899	2.1866
 145.34	1.8887	2.1877
 145.46	1.8892	2.1869
 145.57	1.8897	2.1880
 145.68	1.8892	2.1876
 145.80	1.8894	2.1867
 145.91	1.8892	2.1869
 146.03	1.8895	2.1866
 146.15	1.8900	2.1868
 146.26	1.8890	2.1872
 146.37	1.8903	2.1865
 146.49	1.8896	2.1867
 146.60	1.8892	2.1868
 146.72	1.8894	2.1875
 146.83	1.8890	2.1872
 146.95	1.8891	2.1870
 147.06	1.8894	2.1872
 147.18	1.8892	2.1876
 147.29	1.8887	2.1870
 147.40	1.8884	2.1872
 147.52	1.8882	2.1866
 147.63	1.8879	2.1873
 147.74	1.8876	2.1875
 147.86	1.8879	2.1871
 147.97	1.8881	2.1868
 148.08	1.8875	2.1873
 148.20	1.8874	2.1876
 148.31	1.8880	2.1875
 148.43	1.8932	2.1873
 148.54	1.9089	2.1870
 148.66	1.9075	2.1870
 148.78	1.9110	2.1870
 148.89	1.9208	2.1854
 149.01	1.9202	2.1849
 149.12	1.9303	2.1838
 149.24	1.9422	2.1815
 149.35	1.9525	2.1798
 149.47	1.9610	2.1771
 149.58	1.9690	2.1760
 149.69	1.9746	2.1750
 149.81	1.9855	2.1730
 149.92	1.9891	2.1729
 150.04	1.9967	2.1708
 150.15	1.9971	2.1712
 150.27	1.9969	2.1706
 150.38	1.9962	2.1712
 150.49	1.9956	2.1708
 150.61	1.9955	2.1711
 150.72	1.9949	2.1702
 150.84	1.9942	2.1704
 150.95	2.0013	2.1688
 151.07	2.0026	2.1689
 151.18	2.0050	2.1693
 151.30	2.0048	2.1688
 151.41	2.0049	2.1693
 151.52	2.0074	2.1686
 151.64	2.0108	2.1673
 151.75	2.0156	2.1675
 151.87	2.0166	2.1675
 151.98	2.0160	2.1677
 152.09	2.0164	2.1669
 152.21	2.0168	2.1675
 152.33	2.0179	2.1671
 152.44	2.0203	2.1675
 152.56	2.0201	2.1671
 152.67	2.0197	2.1672
 152.79	2.0186	2.1665
 152.90	2.0183	2.1673
 153.02	2.0170	2.1669
 153.13	2.0169	2.1680
 153.25	2.0165	2.1674
 153.36	2.0165	2.1670
 153.47	2.0161	2.1669
 153.59	2.0162	2.1679
 153.70	2.0156	2.1678
 153.82	2.0157	2.1682
 153.93	2.0160	2.1668
 154.05	2.0153	2.1677
 154.16	2.0157	2.1672
 154.28	2.0159	2.1672
 154.39	2.0163	2.1677
 154.51	2.0145	2.1684
 154.62	2.0145	2.1677
 154.73	2.0140	2.1672
 154.85	2.0136	2.1678
 154.97	2.0147	2.1672
 155.09	2.0133	2.1669
 155.20	2.0136	2.1678
 155.31	2.0131	2.1666
 155.43	2.0129	2.1674
 155.54	2.0123	2.1681
 155.66	2.0168	2.1665
 155.77	2.0339	2.1637
 155.89	2.0406	2.1629
 156.00	2.0496	2.1608
 156.11	2.0551	2.1603
 156.23	2.0618	2.1588
 156.34	2.0637	2.1588
 156.46	2.0683	2.1575
 156.57	2.0793	2.1564
 156.69	2.0861	2.1544
 156.80	2.1032	2.1514
 156.92	2.1031	2.1520
 157.03	2.1036	2.1518
 157.14	2.1072	2.1510
 157.26	2.1086	2.1507
 157.37	2.1090	2.1505
 157.49	2.1097	2.1502
 157.60	2.1120	2.1500
 157.71	2.1121	2.1501
 157.83	2.1155	2.1501
 157.94	2.1156	2.1494
 158.06	2.1286	2.1475
 158.17	2.1420	2.1452
 158.28	2.1408	2.1457
 158.40	2.1405	2.1448
 158.51	2.1410	2.1456
 158.63	2.1420	2.1457
 158.74	2.1414	2.1455
 158.86	2.1420	2.1456
 158.97	2.1419	2.1460
 159.09	2.1429	2.1455
 159.20	2.1424	2.1451
 159.31	2.1435	2.1458
 159.43	2.1436	2.1459
 159.54	2.1425	2.1458
 159.66	2.1429	2.1456
 159.77	2.1427	2.1459
 159.89	2.1427	2.1455
 160.00	2.1423	2.1453
 160.11	2.1432	2.1454
 160.23	2.1431	2.1459
 160.34	2.1426	2.1456
 160.46	2.1427	2.1453
 160.57	2.1421	2.1448
 160.69	2.1428	2.1447
 160.80	2.1428	2.1446
 160.92	2.1426	2.1452
 161.03	2.1430	2.1454
 161.14	2.1422	2.1456
 161.26	2.1425	2.1455
 161.37	2.1424	2.1452
 161.48	2.1434	2.1455
 161.60	2.1424	2.1453
 161.71	2.1429	2.1452
 161.83	2.1418	2.1459
 161.94	2.1472	2.1452
 162.05	2.1570	2.1438
 162.17	2.1780	2.1395
 162.28	2.2009	2.1359
 162.40	2.2206	2.1326
 162.51	2.2336	2.1300
 162.62	2.2429	2.1285
 162.74	2.2492	2.1273
 162.85	2.2497	2.1275
 162.97	2.2496	2.1270
 163.08	2.2485	2.1271
 163.19	2.2488	2.1273
 163.31	2.2516	2.1267
 163.42	2.2549	2.1264
 163.54	2.2552	2.1265
 163.65	2.2553	2.1266
 163.77	2.2554	2.1262
 163.88	2.2562	2.1260
 164.00	2.2561	2.1257
 164.11	2.2603	2.1257
 164.23	2.2601	2.1256
 164.34	2.2635	2.1250
 164.45	2.2626	2.1251
 164.57	2.2626	2.1247
 164.69	2.2625	2.1255
 164.80	2.2613	2.1262
 164.91	2.2617	2.1253
 165.02	2.2611	2.1249
 165.14	2.2618	2.1244
 165.25	2.2625	2.1252
 165.36	2.2619	2.1255
 165.48	2.2623	2.1262
 165.59	2.2625	2.1253
 165.71	2.2616	2.1251
 165.82	2.2613	2.1255
 165.94	2.2612	2.1259
 166.05	2.2605	2.1259
 166.16	2.2600	2.1249
 166.27	2.2598	2.1256
 166.39	2.2602	2.1254
 166.50	2.2594	2.1257
 166.61	2.2596	2.1256
 166.73	2.2589	2.1255
 166.84	2.2584	2.1252
 166.95	2.2582	2.1259
 167.07	2.2587	2.1251
 167.18	2.2587	2.1250
 167.30	2.2581	2.1248
 167.41	2.2579	2.1248
 167.52	2.2588	2.1250
 167.64	2.2586	2.1260
 167.75	2.2574	2.1250
 167.87	2.2579	2.1252
 167.98	2.2571	2.1251
 168.09	2.2568	2.1253
 168.21	2.2569	2.1254
 168.33	2.2636	2.1241
 168.44	2.2707	2.1224
 168.55	2.2853	2.1205
 168.67	2.3085	2.1161
 168.78	2.3259	2.1136
 168.89	2.3489	2.1096
 169.01	2.3562	2.1079
 169.12	2.3559	2.1084
 169.24	2.3560	2.1074
 169.35	2.3559	2.1085
 169.46	2.3558	2.1088
 169.58	2.3551	2.1079
 169.70	2.3580	2.1080
 169.81	2.3649	2.1071
 169.92	2.3650	2.1069
 170.04	2.3670	2.1062
 170.15	2.3677	2.1069
 170.27	2.3671	2.1064
 170.38	2.3677	2.1066
 170.49	2.3702	2.1059
 170.61	2.3709	2.1057
 170.73	2.3701	2.1058
 170.84	2.3722	2.1055
 170.96	2.3728	2.1053
 171.07	2.3768	2.1050
 171.19	2.3756	2.1050
 171.30	2.3752	2.1042
 171.41	2.3776	2.1054
 171.53	2.3803	2.1043
 171.64	2.3864	2.1042
 171.76	2.3866	2.1035
 171.88	2.3860	2.1032
 171.99	2.3859	2.1035
 172.10	2.3858	2.1037
 172.22	2.3785	2.1036
 172.33	2.3770	2.1042
 172.44	2.3753	2.1042
 172.56	2.3745	2.1032
 172.67	2.3743	2.1037
 172.79	2.3727	2.1026
 172.90	2.3718	2.1044
 173.02	2.3726	2.1048
 173.13	2.3718	2.1034
 173.25	2.3713	2.1031
 173.36	2.3730	2.1038
 173.48	2.3710	2.1039
 173.59	2.3718	2.1037
 173.70	2.3723	2.1040
 173.82	2.3705	2.1041
 173.93	2.3725	2.1046
 174.05	2.3717	2.1037
 174.16	2.3715	2.1038
 174.28	2.3715	2.1042
 174.39	2.3717	2.1046
 174.51	2.3717	2.1040
 174.62	2.3719	2.1034
 174.74	2.3717	2.1036
 174.85	2.3720	2.1049
 174.96	2.3727	2.1037
 175.08	2.3714	2.1029
 175.19	2.3727	2.1029
 175.31	2.3720	2.1032
 175.42	2.3718	2.1032
 175.54	2.3721	2.1036
 175.65	2.3729	2.1031
 175.76	2.3722	2.1033
 175.88	2.3728	2.1038
 175.99	2.3726	2.1033
 176.11	2.3720	2.1045
 176.22	2.3724	2.1028
 176.33	2.3709	2.1029
 176.45	2.3722	2.1035
 176.57	2.3715	2.1037
 176.68	2.3718	2.1041
 176.79	2.3726	2.1038
 176.91	2.3718	2.1030
 177.03	2.3716	2.1032
 177.14	2.3713	2.1040
 177.25	2.3713	2.1036
 177.37	2.3715	2.1037
 177.48	2.3710	2.1023
 177.59	2.3719	2.1033
 177.71	2.4010	2.0988
 177.82	2.4431	2.0921
 177.94	2.4759	2.0854
 178.05	2.4860	2.0848
 178.16	2.5002	2.0815
 178.28	2.5081	2.0800
 178.39	2.5086	2.0807
 178.51	2.5091	2.0810
 178.62	2.5086	2.0802
 178.73	2.5084	2.0807
 178.85	2.5097	2.0794
 178.97	2.5081	2.0802
 179.09	2.5066	2.0808
 179.20	2.5047	2.0820
 179.31	2.5052	2.0815
 179.43	2.5050	2.0808
 179.54	2.5044	2.0811
 179.66	2.5036	2.0810
 179.77	2.5004	2.0819
 179.88	2.5012	2.0816
 180.00	2.5015	2.0815
 180.11	2.5003	2.0820
 180.23	2.5018	2.0816
 180.35	2.5005	2.0822
 180.46	2.5016	2.0813
 180.57	2.5015	2.0813
 180.68	2.5014	2.0817
 180.80	2.5012	2.0818
 180.92	2.5005	2.0823
 181.03	2.5009	2.0813
 181.14	2.5009	2.0819
 181.26	2.5014	2.0819
 181.37	2.5009	2.0827
 181.49	2.4999	2.0814
 181.61	2.5010	2.0814
 181.72	2.5011	2.0810
 181.83	2.5010	2.0820
 181.95	2.5012	2.0814
 182.06	2.5008	2.0824
 182.18	2.5001	2.0825
 182.30	2.5004	2.0817
 182.41	2.5010	2.0818
 182.52	2.5007	2.0825
 182.63	2.5006	2.0814
 182.75	2.5013	2.0812
 182.87	2.5014	2.0817
 182.98	2.5015	2.0820
 183.09	2.5017	2.0811
 183.21	2.5020	2.0816
 183.32	2.5014	2.0823
 183.44	2.5012	2.0819
 183.55	2.5014	2.0815
 183.66	2.5005	2.0818
 183.78	2.5008	2.0817
 183.89	2.5002	2.0820
 184.01	2.5002	2.0819
 184.12	2.5013	2.0818
 184.23	2.5088	2.0822
 184.35	2.5067	2.0818
 184.47	2.5107	2.0807
 184.58	2.5417	2.0744
 184.70	2.5447	2.0741
 184.81	2.5533	2.0716
 184.93	2.5614	2.0715
 185.04	2.5667	2.0700
 185.15	2.5774	2.0680
 185.27	2.5964	2.0647
 185.38	2.6080	2.0631
 185.49	2.6168	2.0603
 185.61	2.6218	2.0600
 185.72	2.6293	2.0590
 185.84	2.6335	2.0587
 185.95	2.6390	2.0575
 186.07	2.6529	2.0548
 186.18	2.6597	2.0536
 186.29	2.6727	2.0512
 186.41	2.6844	2.0498
 186.52	2.6879	2.0485
 186.64	2.6891	2.0480
 186.75	2.6897	2.0490
 186.87	2.6962	2.0471
 186.98	2.7014	2.0466
 187.10	2.7046	2.0456
 187.21	2.7169	2.0438
 187.33	2.7194	2.0434
 187.44	2.7209	2.0437
 187.55	2.7245	2.0430
 187.67	2.7271	2.0427
 187.78	2.7338	2.0412
 187.90	2.7449	2.0393
 188.01	2.7475	2.0391
 188.12	2.7461	2.0395
 188.24	2.7506	2.0391
 188.35	2.7703	2.0357
 188.47	2.7721	2.0351
 188.58	2.7720	2.0349
 188.70	2.7725	2.0345
 188.81	2.7797	2.0337
 188.93	2.7884	2.0319
 189.04	2.7914	2.0321
 189.15	2.7949	2.0310
 189.27	2.7962	2.0305
 189.38	2.7976	2.0302
 189.50	2.7982	2.0305
 189.61	2.7914	2.0309
 189.73	2.7814	2.0318
 189.84	2.7805	2.0334
 189.96	2.7866	2.0323
 190.07	2.7793	2.0319
 190.19	2.7765	2.0339
 190.30	2.7787	2.0326
 190.41	2.7786	2.0322
 190.53	2.7764	2.0322
 190.64	2.7693	2.0334
 190.76	2.7675	2.0321
 190.88	2.7668	2.0330
 190.99	2.7674	2.0331
 191.10	2.7665	2.0331
 191.21	2.7701	2.0321
 191.33	2.7691	2.0330
 191.44	2.7780	2.0311
 191.56	2.7798	2.0304
 191.67	2.7803	2.0302
 191.78	2.7790	2.0306
 191.90	2.7791	2.0304
 192.01	2.7780	2.0298
 192.13	2.7950	2.0295
 192.24	2.7880	2.0313
 192.36	2.7852	2.0302
 192.47	2.7842	2.0306
 192.59	2.7833	2.0305
 192.70	2.7831	2.0300
 192.82	2.7829	2.0303
 192.93	2.7824	2.0298
 193.05	2.7826	2.0303
 193.16	2.7826	2.0304
 193.28	2.7833	2.0300
 193.39	2.7819	2.0308
 193.50	2.7824	2.0298
 193.62	2.7823	2.0313
 193.73	2.7824	2.0301
 193.85	2.7819	2.0304
 193.96	2.7823	2.0302
 194.07	2.7819	2.0302
 194.19	2.7824	2.0312
 194.31	2.7821	2.0306
 194.42	2.7817	2.0302
 194.53	2.7814	2.0306
 194.65	2.7811	2.0308
 194.76	2.7813	2.0313
 194.88	2.7815	2.0311
 194.99	2.7815	2.0298
 195.11	2.7820	2.0301
 195.22	2.7824	2.0304
 195.33	2.7815	2.0305
 195.45	2.7813	2.0314
 195.56	2.7808	2.0308
 195.68	2.7814	2.0302
 195.79	2.7804	2.0309
 195.90	2.7814	2.0307
 196.02	2.7816	2.0304
 196.13	2.7808	2.0307
 196.25	2.7805	2.0308
 196.36	2.7810	2.0308
 196.48	2.7814	2.0307
 196.59	2.7813	2.0298
 196.70	2.7809	2.0302
 196.82	2.7817	2.0301
 196.93	2.7808	2.0305
 197.05	2.7799	2.0315
 197.16	2.7902	2.0289
 197.27	2.8663	2.0162
 197.39	2.8950	2.0123
 197.51	2.9102	2.0093
 197.62	2.9378	2.0045
 197.74	2.9662	2.0000
 197.85	2.9804	1.9977
 197.96	2.9886	1.9958
 198.08	2.9898	1.9964
 198.19	2.9964	1.9956
 198.30	2.9993	1.9941
 198.42	3.0125	1.9917
 198.53	3.0273	1.9888
 198.65	3.0407	1.9876
 198.76	3.0560	1.9842
 198.88	3.0702	1.9834
 198.99	3.0761	1.9816
 199.11	3.0789	1.9820
 199.22	3.0815	1.9811
 199.33	3.0805	1.9816
 199.45	3.0880	1.9793
 199.56	3.0932	1.9788
 199.67	3.0966	1.9783
 199.79	3.0992	1.9783
 199.90	3.0950	1.9788
 200.02	3.0919	1.9791
 200.13	3.0920	1.9793
 200.24	3.0916	1.9795
 200.36	3.0930	1.9783
 200.47	3.0926	1.9788
 200.59	3.0921	1.9791
 200.70	3.0985	1.9789
 200.81	3.0862	1.9801
 200.93	3.0850	1.9785
 201.05	3.0852	1.9790
 201.16	3.0847	1.9786
 201.28	3.0848	1.9789
 201.39	3.0848	1.9790
 201.51	3.0844	1.9783
 201.62	3.0843	1.9791
 201.74	3.0841	1.9782
 201.85	3.0850	1.9786
 201.97	3.0849	1.9791
 202.08	3.0840	1.9793
 202.19	3.0839	1.9795
 202.31	3.0844	1.9786
 202.42	3.0844	1.9773
 202.54	3.0841	1.9795
 202.65	3.0843	1.9781
 202.77	3.0838	1.9784
 202.88	3.0833	1.9793
 203.00	3.0834	1.9789
 203.11	3.0843	1.9788
 203.22	3.0826	1.9792
 203.34	3.0831	1.9792
 203.45	3.0837	1.9788
 203.57	3.0835	1.9796
 203.68	3.0836	1.9789
 203.79	3.0840	1.9789
 203.90	3.0839	1.9790
 204.02	3.0832	1.9786
 204.13	3.0831	1.9786
 204.24	3.0826	1.9789
 204.36	3.0833	1.9784
 204.47	3.0846	1.9798
 204.59	3.0835	1.9785
 204.70	3.0839	1.9793
 204.81	3.0836	1.9782
 204.93	3.0844	1.9798
 205.04	3.0828	1.9784
 205.16	3.0823	1.9793
 205.27	3.0828	1.9782
 205.39	3.0833	1.9788
 205.50	3.0827	1.9801
 205.61	3.0825	1.9790
 205.73	3.0833	1.9786
 205.85	3.0827	1.9789
 205.96	3.0816	1.9788
 206.08	3.0877	1.9779
 206.19	3.1048	1.9750
 206.30	3.1212	1.9721
 206.42	3.1295	1.9711
 206.53	3.1444	1.9683
 206.64	3.1589	1.9662
 206.76	3.1716	1.9636
 206.87	3.1822	1.9627
 206.99	3.1917	1.9611
 207.10	3.2114	1.9576
 207.21	3.2219	1.9562
 207.33	3.2315	1.9546
 207.44	3.2423	1.9525
 207.56	3.2504	1.9506
 207.67	3.2544	1.9503
 207.79	3.2655	1.9482
 207.90	3.2793	1.9461
 208.02	3.2952	1.9432
 208.13	3.3048	1.9423
 208.25	3.3078	1.9412
 208.36	3.3157	1.9407
 208.47	3.3244	1.9396
 208.59	3.3342	1.9375
 208.70	3.3427	1.9361
 208.81	3.3508	1.9338
 208.93	3.3548	1.9334
 209.04	3.3598	1.9332
 209.15	3.3648	1.9317
 209.27	3.3666	1.9323
 209.39	3.3792	1.9300
 209.50	3.3888	1.9278
 209.61	3.3954	1.9272
 209.73	3.4008	1.9258
 209.84	3.4016	1.9246
 209.96	3.4011	1.9258
 210.07	3.3958	1.9265
 210.18	3.3947	1.9276
 210.30	3.3927	1.9265
 210.41	3.3927	1.9257
 210.53	3.3925	1.9269
 210.65	3.3918	1.9269
 210.76	3.3940	1.9267
 210.87	3.3858	1.9268
 210.98	3.3851	1.9271
 211.10	3.3843	1.9266
 211.21	3.3840	1.9267
 211.33	3.3829	1.9266
 211.44	3.3823	1.9265
 211.56	3.3828	1.9262
 211.67	3.3824	1.9255
 211.79	3.3817	1.9266
 211.90	3.3808	1.9255
 212.01	3.3811	1.9260
 212.13	3.3814	1.9258
 212.25	3.3818	1.9272
 212.36	3.3808	1.9269
 212.48	3.3816	1.9266
 212.59	3.3812	1.9273
 212.71	3.3813	1.9274
 212.82	3.3804	1.9261
 212.94	3.3809	1.9258
 213.05	3.3809	1.9267
 213.16	3.3815	1.9264
 213.27	3.3809	1.9271
 213.39	3.3816	1.9272
 213.50	3.3810	1.9262
 213.62	3.3809	1.9269
 213.74	3.3809	1.9267
 213.85	3.3804	1.9271
 213.96	3.3806	1.9265
 214.08	3.3803	1.9268
 214.19	3.3799	1.9261
 214.31	3.3806	1.9264
 214.42	3.3810	1.9266
 214.53	3.3803	1.9260
 214.65	3.3802	1.9269
 214.76	3.3796	1.9258
 214.88	3.3796	1.9265
 214.99	3.3796	1.9259
 215.10	3.3801	1.9261
 215.22	3.3798	1.9263
 215.33	3.3799	1.9273
 215.45	3.3799	1.9268
 215.56	3.3798	1.9264
 215.68	3.3794	1.9266
 215.79	3.3798	1.9263
 215.91	3.3787	1.9262
 216.02	3.3790	1.9269
 216.13	3.3793	1.9269
 216.25	3.3792	1.9259
 216.36	3.3790	1.9268
 216.48	3.3791	1.9268
 216.59	3.3792	1.9266
 216.71	3.3794	1.9261
 216.82	3.3783	1.9271
 216.94	3.3798	1.9259
 217.05	3.3796	1.9264
 217.17	3.3807	1.9262
 217.28	3.3906	1.9264
 217.40	3.3865	1.9268
 217.51	3.3837	1.9270
 217.63	3.3815	1.9263
 217.74	3.3797	1.9258
 217.85	3.3783	1.9259
 217.97	3.3777	1.9271
 218.08	3.3761	1.9265
 218.20	3.3766	1.9260
 218.31	3.3795	1.9259
 218.42	3.4008	1.9231
 218.54	3.4273	1.9184
 218.66	3.4369	1.9155
 218.77	3.4578	1.9134
 218.88	3.4691	1.9104
 218.99	3.4766	1.9099
 219.11	3.4768	1.9099
 219.22	3.4768	1.9096
 219.34	3.4868	1.9082
 219.45	3.4920	1.9067
 219.56	3.5012	1.9053
 219.68	3.5105	1.9043
 219.80	3.5152	1.9032
 219.91	3.5233	1.9022
 220.02	3.5304	1.9010
 220.14	3.5354	1.9001
 220.26	3.5409	1.8991
 220.37	3.5466	1.8982
 220.49	3.5514	1.8977
 220.60	3.5595	1.8964
 220.71	3.5650	1.8952
 220.83	3.5683	1.8945
 220.95	3.5733	1.8940
 221.06	3.5712	1.8941
 221.18	3.5698	1.8941
 221.29	3.5692	1.8945
 221.41	3.5687	1.8941
 221.52	3.5764	1.8933
 221.63	3.5859	1.8913
 221.75	3.5912	1.8905
 221.86	3.5946	1.8908
 221.97	3.5977	1.8900
 222.09	3.5984	1.8894
 222.20	3.6113	1.8874
 222.32	3.6221	1.8849
 222.43	3.6273	1.8842
 222.54	3.6287	1.8840
 222.66	3.6365	1.8821
 222.77	3.6408	1.8811
 222.89	3.6450	1.8814
 223.00	3.6582	1.8799
 223.11	3.6769	1.8755
 223.23	3.6822	1.8742
 223.34	3.6846	1.8740
 223.46	3.6985	1.8716
 223.57	3.7041	1.8701
 223.69	3.7012	1.8716
 223.80	3.7014	1.8710
 223.91	3.7012	1.8702
 224.03	3.7000	1.8704
 224.14	3.6994	1.8714
 224.26	3.6996	1.8712
 224.37	3.6941	1.8710
 224.49	3.6887	1.8734
 224.60	3.6856	1.8735
 224.72	3.6822	1.8733
 224.83	3.6818	1.8735
 224.94	3.6809	1.8738
 225.06	3.6802	1.8738
 225.17	3.6803	1.8734
 225.29	3.6792	1.8737
 225.40	3.7022	1.8732
 225.52	3.6835	1.8738
 225.64	3.6799	1.8735
 225.75	3.6780	1.8736
 225.86	3.6776	1.8748
 225.98	3.6772	1.8728
 226.09	3.6766	1.8734
 226.21	3.6747	1.8746
 226.32	3.6748	1.8739
 226.43	3.6746	1.8741
 226.55	3.6749	1.8740
 226.66	3.6742	1.8739
 226.78	3.6738	1.8739
 226.89	3.6736	1.8737
 227.00	3.6738	1.8749
 227.12	3.6724	1.8740
 227.23	3.6732	1.8738
 227.35	3.6733	1.8744
 227.46	3.6724	1.8732
 227.57	3.6724	1.8726
 227.69	3.6725	1.8736
 227.81	3.6710	1.8727
 227.92	3.6704	1.8730
 228.03	3.6721	1.8727
 228.15	3.6705	1.8742
 228.26	3.6705	1.8741
 228.38	3.6707	1.8737
 228.49	3.6711	1.8736
 228.60	3.6707	1.8739
 228.72	3.6715	1.8745
 228.83	3.6698	1.8732
 228.95	3.6704	1.8737
 229.06	3.6697	1.8732
 229.18	3.6700	1.8736
 229.29	3.6702	1.8737
 229.41	3.6701	1.8730
 229.52	3.6707	1.8732
 229.63	3.6708	1.8736
 229.75	3.6711	1.8739
 229.86	3.6703	1.8737
 229.97	3.6706	1.8735
 230.09	3.6703	1.8739
 230.21	3.6705	1.8738
 230.32	3.6697	1.8741
 230.43	3.6687	1.8731
 230.54	3.6710	1.8740
 230.66	3.6701	1.8736
 230.78	3.6711	1.8734
 230.89	3.6708	1.8743
 231.00	3.6710	1.8731
 231.12	3.6695	1.8735
 231.23	3.6771	1.8739
 231.35	3.6762	1.8736
 231.46	3.6766	1.8741
 231.58	3.6765	1.8737
 231.69	3.6764	1.8745
 231.81	3.6761	1.8731
 231.92	3.6761	1.8737
 232.04	3.6815	1.8730
 232.15	3.6915	1.8710
 232.26	3.6923	1.8706
 232.38	3.7016	1.8689
 232.49	3.7130	1.8670
 232.61	3.7181	1.8673
 232.72	3.7288	1.8647
 232.83	3.7434	1.8626
 232.95	3.7522	1.8604
 233.07	3.7568	1.8602
 233.18	3.7582	1.8600
 233.30	3.7595	1.8597
 233.41	3.7639	1.8585
 233.53	3.7735	1.8571
 233.64	3.7904	1.8542
 233.76	3.8084	1.8518
 233.87	3.8222	1.8489
 233.98	3.8298	1.8479
 234.10	3.8355	1.8464
 234.21	3.8430	1.8461
 234.32	3.8512	1.8438
 234.44	3.8608	1.8423
 234.55	3.8699	1.8409
 234.66	3.8779	1.8397
 234.78	3.8844	1.8388
 234.89	3.8922	1.8372
 235.01	3.8982	1.8359
 235.13	3.9016	1.8356
 235.24	3.9112	1.8337
 235.35	3.9219	1.8324
 235.47	3.9309	1.8305
 235.58	3.9436	1.8280
 235.70	3.9556	1.8260
 235.81	3.9586	1.8265
 235.92	3.9602	1.8256
 236.04	3.9647	1.8246
 236.15	3.9740	1.8222
 236.27	3.9790	1.8216
 236.38	3.9811	1.8211
 236.49	3.9819	1.8206
 236.61	3.9849	1.8210
 236.73	3.9876	1.8198
 236.84	3.9803	1.8213
 236.95	3.9783	1.8219
 237.07	3.9772	1.8213
 237.18	3.9762	1.8210
 237.30	3.9764	1.8210
 237.41	3.9596	1.8213
 237.53	3.9576	1.8210
 237.64	3.9557	1.8214
 237.75	3.9552	1.8209
 237.87	3.9557	1.8214
 237.98	3.9562	1.8208
 238.10	3.9554	1.8208
 238.21	3.9556	1.8214
 238.33	3.9558	1.8223
 238.44	3.9539	1.8218
 238.55	3.9531	1.8208
 238.67	3.9535	1.8212
 238.78	3.9533	1.8210
 238.90	3.9528	1.8217
 239.01	3.9538	1.8215
 239.12	3.9533	1.8214
 239.24	3.9525	1.8219
 239.35	3.9528	1.8200
 239.46	3.9527	1.8212
 239.58	3.9534	1.8214
 239.69	3.9530	1.8221
 239.81	3.9525	1.8218
 239.92	3.9525	1.8222
 240.03	3.9526	1.8210
 240.15	3.9526	1.8211
 240.26	3.9521	1.8223
 240.37	3.9535	1.8210
 240.48	3.9515	1.8209
 240.60	3.9516	1.8212
 240.71	3.9508	1.8208
 240.83	3.9520	1.8216
 240.94	3.9522	1.8215
 241.06	3.9512	1.8217
 241.17	3.9532	1.8212
 241.28	3.9376	1.8207
 241.40	3.9347	1.8211
 241.52	3.9340	1.8223
 241.63	3.9487	1.8189
 241.74	3.9802	1.8140
 241.85	4.0076	1.8084
 241.97	4.0330	1.8035
 242.08	4.0492	1.8018
 242.19	4.0569	1.8005
 242.31	4.0615	1.7987
 242.42	4.0689	1.7980
 242.54	4.0753	1.7970
 242.65	4.0844	1.7967
 242.76	4.0999	1.7929
 242.88	4.1040	1.7919
 242.99	4.1093	1.7912
 243.11	4.1205	1.7888
 243.22	4.1330	1.7858
 243.33	4.1382	1.7866
 243.44	4.1422	1.7844
 243.56	4.1470	1.7832
 243.68	4.1584	1.7812
 243.79	4.1647	1.7796
 243.90	4.1722	1.7789
 244.02	4.1751	1.7781
 244.13	4.1796	1.7767
 244.24	4.1953	1.7745
 244.35	4.2025	1.7727
 244.47	4.2067	1.7717
 244.59	4.2101	1.7712
 244.70	4.2135	1.7712
 244.82	4.2198	1.7691
 244.93	4.2276	1.7678
 245.04	4.2256	1.7684
 245.16	4.2202	1.7692
 245.27	4.2202	1.7689
 245.39	4.2199	1.7693
 245.50	4.2191	1.7693
 245.61	4.2208	1.7689
 245.73	4.2316	1.7670
 245.85	4.2361	1.7658
 245.96	4.2406	1.7647
 246.07	4.2406	1.7647
 246.19	4.2399	1.7650
 246.30	4.2396	1.7645
 246.42	4.2387	1.7659
 246.53	4.2391	1.7653
 246.65	4.2395	1.7660
 246.76	4.2349	1.7664
 246.87	4.2334	1.7666
 246.99	4.2325	1.7660
 247.10	4.2328	1.7660
 247.22	4.2330	1.7658
 247.33	4.2299	1.7669
 247.44	4.2291	1.7672
 247.56	4.2262	1.7679
 247.68	4.2247	1.7686
 247.79	4.2192	1.7690
 247.90	4.2165	1.7684
 248.01	4.2159	1.7692
 248.13	4.2155	1.7688
 248.25	4.2138	1.7694
 248.36	4.2132	1.7696
 248.48	4.2134	1.7695
 248.59	4.2141	1.7697
 248.70	4.2127	1.7698
 248.82	4.2135	1.7704
 248.93	4.2139	1.7692
 249.05	4.2131	1.7695
 249.16	4.2137	1.7688
 249.28	4.2131	1.7695
 249.39	4.2138	1.7687
 249.50	4.2134	1.7696
 249.62	4.2128	1.7699
 249.74	4.2134	1.7695
 249.85	4.2126	1.7700
 249.97	4.2120	1.7690
 250.08	4.2140	1.7694
 250.19	4.2132	1.7696
 250.31	4.2128	1.7700
 250.42	4.2123	1.7707
 250.54	4.2131	1.7697
 250.66	4.2128	1.7705
 250.77	4.2125	1.7695
 250.88	4.2126	1.7694
 251.00	4.2135	1.7695
 251.11	4.2117	1.7700
 251.23	4.2131	1.7698
 251.34	4.2119	1.7696
 251.46	4.2129	1.7698
 251.57	4.2128	1.7697
 251.69	4.2129	1.7687
 251.80	4.2123	1.7692
 251.92	4.2127	1.7696
 252.03	4.2126	1.7699
 252.14	4.2120	1.7704
 252.26	4.2121	1.7693
 252.37	4.2166	1.7686
 252.49	4.2224	1.7678
 252.60	4.2441	1.7643
 252.71	4.2521	1.7620
 252.83	4.2760	1.7585
 252.95	4.2927	1.7558
 253.06	4.3124	1.7525
 253.18	4.3267	1.7503
 253.29	4.3400	1.7480
 253.40	4.3533	1.7453
 253.52	4.3643	1.7438
 253.63	4.3739	1.7424
 253.75	4.3797	1.7409
 253.86	4.3868	1.7398
 253.98	4.3981	1.7372
 254.09	4.4059	1.7370
 254.21	4.4159	1.7351
 254.32	4.4251	1.7337
 254.43	4.4348	1.7319
 254.55	4.4464	1.7293
 254.66	4.4502	1.7280
 254.78	4.4530	1.7275
 254.89	4.4577	1.7267
 255.01	4.4631	1.7253
 255.12	4.4678	1.7243
 255.24	4.4659	1.7244
 255.35	4.4660	1.7246
 255.47	4.4644	1.7239
 255.58	4.4655	1.7247
 255.69	4.4672	1.7242
 255.81	4.4713	1.7223
 255.92	4.4702	1.7223
 256.03	4.4746	1.7223
 256.14	4.4765	1.7211
 256.26	4.4751	1.7218
 256.37	4.4758	1.7210
 256.49	4.4783	1.7217
 256.60	4.4797	1.7209
 256.71	4.4812	1.7202
 256.83	4.4860	1.7192
 256.94	4.4850	1.7203
 257.06	4.4854	1.7194
 257.17	4.4838	1.7195
 257.28	4.4841	1.7195
 257.40	4.4845	1.7196
 257.51	4.4845	1.7194
 257.63	4.4838	1.7192
 257.74	4.4851	1.7191
 257.86	4.4902	1.7185
 257.97	4.4962	1.7170
 258.08	4.4961	1.7182
 258.20	4.4969	1.7176
 258.31	4.4966	1.7171
 258.43	4.4965	1.7180
 258.54	4.4958	1.7168
 258.65	4.5076	1.7171
 258.77	4.5058	1.7172
 258.89	4.5062	1.7176
 259.00	4.5060	1.7173
 259.11	4.5053	1.7177
 259.22	4.5045	1.7172
 259.34	4.5042	1.7179
 259.45	4.5046	1.7176
 259.57	4.5041	1.7177
 259.68	4.5045	1.7172
 259.80	4.5043	1.7178
 259.91	4.5037	1.7180
 260.03	4.5041	1.7176
 260.14	4.5038	1.7171
 260.25	4.5036	1.7171
 260.37	4.5040	1.7173
 260.48	4.5044	1.7180
 260.60	4.5034	1.7170
 260.71	4.5035	1.7168
 260.83	4.5040	1.7180
 260.94	4.5039	1.7172
 261.06	4.5037	1.7171
 261.17	4.5035	1.7177
 261.29	4.5036	1.7171
 261.40	4.5036	1.7176
 261.52	4.5033	1.7179
 261.63	4.5037	1.7175
 261.75	4.5032	1.7177
 261.86	4.5031	1.7176
 261.98	4.5027	1.7176
 262.09	4.5033	1.7176
 262.21	4.5039	1.7180
 262.32	4.5030	1.7180
 262.43	4.5038	1.7170
 262.55	4.5032	1.7170
 262.66	4.5070	1.7177
 262.78	4.5162	1.7177
 262.89	4.5127	1.7180
 263.00	4.5117	1.7167
 263.12	4.5464	1.7110
 263.23	4.5659	1.7070
 263.35	4.5824	1.7046
 263.46	4.6141	1.6984
 263.58	4.6606	1.6905
 263.69	4.6651	1.6897
 263.81	4.6641	1.6896
 263.92	4.6633	1.6901
 264.03	4.6830	1.6856
 264.15	4.7213	1.6790
 264.26	4.7247	1.6789
 264.38	4.7267	1.6782
 264.49	4.7341	1.6766
 264.61	4.7403	1.6755
 264.72	4.7475	1.6741
 264.83	4.7659	1.6704
 264.95	4.7728	1.6698
 265.07	4.7795	1.6678
 265.18	4.7772	1.6675
 265.30	4.7745	1.6684
 265.41	4.7730	1.6681
 265.53	4.7714	1.6684
 265.64	4.7704	1.6678
 265.76	4.7686	1.6685
 265.87	4.7682	1.6683
 265.99	4.7682	1.6680
 266.10	4.7713	1.6670
 266.22	4.7757	1.6667
 266.33	4.7785	1.6657
 266.45	4.7861	1.6640
 266.56	4.7865	1.6645
 266.68	4.7861	1.6655
 266.79	4.7860	1.6643
 266.90	4.7852	1.6642
 267.02	4.7855	1.6642
 267.13	4.7817	1.6641
 267.25	4.7773	1.6635
 267.36	4.7768	1.6636
 267.47	4.7779	1.6640
 267.59	4.7761	1.6637
 267.71	4.7758	1.6640
 267.82	4.7759	1.6647
 267.93	4.7755	1.6641
 268.05	4.7759	1.6648
 268.16	4.7751	1.6651
 268.28	4.7759	1.6640
 268.39	4.7757	1.6637
 268.51	4.7758	1.6649
 268.62	4.7756	1.6649
 268.74	4.7756	1.6641
 268.85	4.7756	1.6643
 268.97	4.7752	1.6648
 269.08	4.7754	1.6641
 269.19	4.7754	1.6645
 269.31	4.7755	1.6647
 269.42	4.7749	1.6643
 269.54	4.7757	1.6646
 269.65	4.7752	1.6646
 269.76	4.7754	1.6642
 269.87	4.7751	1.6638
 269.99	4.7749	1.6645
 270.10	4.7753	1.6642
 270.21	4.7746	1.6644
 270.33	4.7751	1.6642
 270.44	4.7757	1.6641
 270.56	4.7752	1.6643
 270.67	4.7749	1.6646
 270.78	4.7748	1.6645
 270.90	4.7751	1.6644
 271.01	4.7751	1.6644
 271.12	4.7753	1.6642
 271.23	4.7753	1.6644
 271.35	4.7752	1.6643
 271.46	4.7753	1.6644
 271.58	4.7749	1.6644
 271.69	4.7750	1.6643
 271.81	4.7754	1.6643
 271.92	4.7756	1.6645
 272.04	4.7750	1.6649
 272.15	4.7752	1.6638
 272.27	4.7751	1.6650
 272.38	4.7751	1.6651
 272.49	4.7748	1.6648
 272.61	4.7751	1.6647
 272.72	4.7755	1.6649
 272.83	4.7755	1.6652
 272.95	4.7749	1.6640
 273.06	4.7752	1.6652
 273.18	4.7751	1.6646
 273.29	4.7755	1.6642
 273.40	4.7746	1.6645
 273.52	4.7760	1.6639
 273.63	4.7746	1.6637
 273.74	4.7757	1.6639
 273.86	4.7758	1.6647
 273.98	4.7751	1.6646
 274.09	4.7750	1.6653
 274.20	4.7748	1.6640
 274.32	4.7748	1.6651
 274.43	4.7740	1.6646
 274.55	4.7756	1.6642
 274.66	4.7748	1.6644
 274.78	4.7747	1.6641
 274.89	4.7754	1.6650
 275.01	4.7759	1.6643
 275.12	4.7754	1.6645
 275.23	4.7753	1.6647
 275.35	4.7748	1.6650
 275.46	4.7754	1.6648
 